Filter Name:      WLP4
SI Name:          INRC
Module:           A
Wheel Name:       FILTSHORTA
Date:             UNKNOWN
Source:           06_NC Filter PIL WLS DHS Grisms.xlsx (Flight+4Weaklens_FilterDesign_Ball-JWST-2120.xls)
SN:               UNKNOWN
Column 1:         Wavelength in microns
Column 2:         Fractional Transmission i.e. 1.00 = 100% transmission
Number of rows:   401
 
 
0.50000      0.00000e+00
0.50500      0.00000e+00
0.51000      0.00000e+00
0.51500      0.00000e+00
0.52000      0.00000e+00
0.52500      0.00000e+00
0.53000      0.00000e+00
0.53500      0.00000e+00
0.54000      0.00000e+00
0.54500      0.00000e+00
0.55000      0.00000e+00
0.55500      0.00000e+00
0.56000      0.00000e+00
0.56500      0.00000e+00
0.57000      0.00000e+00
0.57500      0.00000e+00
0.58000      0.00000e+00
0.58500      0.00000e+00
0.59000      0.00000e+00
0.59500      0.00000e+00
0.60000      0.00000e+00
0.60500      0.00000e+00
0.61000      0.00000e+00
0.61500      0.00000e+00
0.62000      0.00000e+00
0.62500      0.00000e+00
0.63000      0.00000e+00
0.63500      0.00000e+00
0.64000      0.00000e+00
0.64500      0.00000e+00
0.65000      0.00000e+00
0.65500      0.00000e+00
0.66000      0.00000e+00
0.66500      0.00000e+00
0.67000      0.00000e+00
0.67500      0.00000e+00
0.68000      0.00000e+00
0.68500      0.00000e+00
0.69000      0.00000e+00
0.69500      0.00000e+00
0.70000      0.00000e+00
0.70500      0.00000e+00
0.71000      0.00000e+00
0.71500      0.00000e+00
0.72000      0.00000e+00
0.72500      0.00000e+00
0.73000      0.00000e+00
0.73500      0.00000e+00
0.74000      0.00000e+00
0.74500      0.00000e+00
0.75000      0.00000e+00
0.75500      0.00000e+00
0.76000      0.00000e+00
0.76500      0.00000e+00
0.77000      0.00000e+00
0.77500      0.00000e+00
0.78000      0.00000e+00
0.78500      0.00000e+00
0.79000      0.00000e+00
0.79500      0.00000e+00
0.80000      0.00000e+00
0.80500      0.00000e+00
0.81000      0.00000e+00
0.81500      0.00000e+00
0.82000      0.00000e+00
0.82500      0.00000e+00
0.83000      0.00000e+00
0.83500      0.00000e+00
0.84000      0.00000e+00
0.84500      0.00000e+00
0.85000      0.00000e+00
0.85500      0.00000e+00
0.86000      0.00000e+00
0.86500      0.00000e+00
0.87000      0.00000e+00
0.87500      0.00000e+00
0.88000      0.00000e+00
0.88500      0.00000e+00
0.89000      0.00000e+00
0.89500      0.00000e+00
0.90000      0.00000e+00
0.90500      0.00000e+00
0.91000      0.00000e+00
0.91500      0.00000e+00
0.92000      0.00000e+00
0.92500      0.00000e+00
0.93000      0.00000e+00
0.93500      0.00000e+00
0.94000      0.00000e+00
0.94500      0.00000e+00
0.95000      0.00000e+00
0.95500      0.00000e+00
0.96000      0.00000e+00
0.96500      0.00000e+00
0.97000      0.00000e+00
0.97500      0.00000e+00
0.98000      0.00000e+00
0.98500      0.00000e+00
0.99000      0.00000e+00
0.99500      0.00000e+00
1.00000      0.00000e+00
1.00500      0.00000e+00
1.01000      0.00000e+00
1.01500      0.00000e+00
1.02000      0.00000e+00
1.02500      0.00000e+00
1.03000      0.00000e+00
1.03500      0.00000e+00
1.04000      0.00000e+00
1.04500      0.00000e+00
1.05000      0.00000e+00
1.05500      0.00000e+00
1.06000      0.00000e+00
1.06500      0.00000e+00
1.07000      0.00000e+00
1.07500      0.00000e+00
1.08000      0.00000e+00
1.08500      0.00000e+00
1.09000      0.00000e+00
1.09500      0.00000e+00
1.10000      0.00000e+00
1.10500      0.00000e+00
1.11000      0.00000e+00
1.11500      0.00000e+00
1.12000      0.00000e+00
1.12500      0.00000e+00
1.13000      0.00000e+00
1.13500      0.00000e+00
1.14000      0.00000e+00
1.14500      0.00000e+00
1.15000      0.00000e+00
1.15500      0.00000e+00
1.16000      0.00000e+00
1.16500      0.00000e+00
1.17000      0.00000e+00
1.17500      0.00000e+00
1.18000      0.00000e+00
1.18500      0.00000e+00
1.19000      0.00000e+00
1.19500      0.00000e+00
1.20000      0.00000e+00
1.20500      0.00000e+00
1.21000      0.00000e+00
1.21500      0.00000e+00
1.22000      0.00000e+00
1.22500      0.00000e+00
1.23000      0.00000e+00
1.23500      0.00000e+00
1.24000      0.00000e+00
1.24500      0.00000e+00
1.25000      0.00000e+00
1.25500      0.00000e+00
1.26000      0.00000e+00
1.26500      0.00000e+00
1.27000      0.00000e+00
1.27500      0.00000e+00
1.28000      0.00000e+00
1.28500      0.00000e+00
1.29000      0.00000e+00
1.29500      0.00000e+00
1.30000      0.00000e+00
1.30500      0.00000e+00
1.31000      0.00000e+00
1.31500      0.00000e+00
1.32000      0.00000e+00
1.32500      0.00000e+00
1.33000      0.00000e+00
1.33500      0.00000e+00
1.34000      0.00000e+00
1.34500      0.00000e+00
1.35000      0.00000e+00
1.35500      0.00000e+00
1.36000      0.00000e+00
1.36500      0.00000e+00
1.37000      0.00000e+00
1.37500      0.00000e+00
1.38000      0.00000e+00
1.38500      0.00000e+00
1.39000      0.00000e+00
1.39500      0.00000e+00
1.40000      0.00000e+00
1.40500      0.00000e+00
1.41000      0.00000e+00
1.41500      0.00000e+00
1.42000      0.00000e+00
1.42500      0.00000e+00
1.43000      0.00000e+00
1.43500      0.00000e+00
1.44000      0.00000e+00
1.44500      0.00000e+00
1.45000      0.00000e+00
1.45500      0.00000e+00
1.46000      0.00000e+00
1.46500      0.00000e+00
1.47000      0.00000e+00
1.47500      0.00000e+00
1.48000      0.00000e+00
1.48500      0.00000e+00
1.49000      0.00000e+00
1.49500      0.00000e+00
1.50000      0.00000e+00
1.50500      0.00000e+00
1.51000      0.00000e+00
1.51500      0.00000e+00
1.52000      0.00000e+00
1.52500      0.00000e+00
1.53000      0.00000e+00
1.53500      0.00000e+00
1.54000      0.00000e+00
1.54500      0.00000e+00
1.55000      0.00000e+00
1.55500      0.00000e+00
1.56000      0.00000e+00
1.56500      0.00000e+00
1.57000      0.00000e+00
1.57500      0.00000e+00
1.58000      0.00000e+00
1.58500      0.00000e+00
1.59000      0.00000e+00
1.59500      0.00000e+00
1.60000      0.00000e+00
1.60500      0.00000e+00
1.61000      0.00000e+00
1.61500      0.00000e+00
1.62000      0.00000e+00
1.62500      0.00000e+00
1.63000      0.00000e+00
1.63500      0.00000e+00
1.64000      0.00000e+00
1.64500      0.00000e+00
1.65000      0.00000e+00
1.65500      0.00000e+00
1.66000      0.00000e+00
1.66500      0.00000e+00
1.67000      0.00000e+00
1.67500      0.00000e+00
1.68000      0.00000e+00
1.68500      0.00000e+00
1.69000      0.00000e+00
1.69500      0.00000e+00
1.70000      0.00000e+00
1.70500      0.00000e+00
1.71000      0.00000e+00
1.71500      0.00000e+00
1.72000      0.00000e+00
1.72500      0.00000e+00
1.73000      0.00000e+00
1.73500      0.00000e+00
1.74000      0.00000e+00
1.74500      0.00000e+00
1.75000      0.00000e+00
1.75500      0.00000e+00
1.76000      0.00000e+00
1.76500      0.00000e+00
1.77000      0.00000e+00
1.77500      0.00000e+00
1.78000      0.00000e+00
1.78500      0.00000e+00
1.79000      0.00000e+00
1.79500      0.00000e+00
1.80000      0.00000e+00
1.80500      0.00000e+00
1.81000      0.00000e+00
1.81500      0.00000e+00
1.82000      0.00000e+00
1.82500      0.00000e+00
1.83000      0.00000e+00
1.83500      0.00000e+00
1.84000      0.00000e+00
1.84500      0.00000e+00
1.85000      0.00000e+00
1.85500      0.00000e+00
1.86000      0.00000e+00
1.86500      0.00000e+00
1.87000      0.00000e+00
1.87500      0.00000e+00
1.88000      0.00000e+00
1.88500      0.00000e+00
1.89000      0.00000e+00
1.89500      0.00000e+00
1.90000      0.00000e+00
1.90500      0.00000e+00
1.91000      0.00000e+00
1.91500      0.00000e+00
1.92000      0.00000e+00
1.92500      0.00000e+00
1.93000      0.00000e+00
1.93500      0.00000e+00
1.94000      0.00000e+00
1.94500      0.00000e+00
1.95000      0.00000e+00
1.95500      0.00000e+00
1.96000      0.00000e+00
1.96500      0.00000e+00
1.97000      0.00000e+00
1.97500      0.00000e+00
1.98000      0.00000e+00
1.98500      0.00000e+00
1.99000      0.00000e+00
1.99500      0.00000e+00
2.00000      0.00000e+00
2.00500      0.00000e+00
2.01000      0.00000e+00
2.01500      0.00000e+00
2.02000      0.00000e+00
2.02500      0.00000e+00
2.03000      0.00000e+00
2.03500      0.00000e+00
2.04000      0.00000e+00
2.04500      0.00000e+00
2.05000      0.00000e+00
2.05500      0.00000e+00
2.06000      0.00000e+00
2.06500      0.00000e+00
2.07000      0.00000e+00
2.07500      0.00000e+00
2.08000      0.00000e+00
2.08500      0.00000e+00
2.09000      0.00000e+00
2.09500      2.00000e-02
2.10000      1.90000e-01
2.10500      8.80000e-01
2.11000      9.60000e-01
2.11500      9.70000e-01
2.12000      9.70000e-01
2.12500      9.70000e-01
2.13000      9.70000e-01
2.13500      9.70000e-01
2.14000      9.70000e-01
2.14500      9.60000e-01
2.15000      9.50000e-01
2.15500      5.30000e-01
2.16000      7.00000e-02
2.16500      1.00000e-02
2.17000      0.00000e+00
2.17500      0.00000e+00
2.18000      0.00000e+00
2.18500      0.00000e+00
2.19000      0.00000e+00
2.19500      0.00000e+00
2.20000      0.00000e+00
2.20500      0.00000e+00
2.21000      0.00000e+00
2.21500      0.00000e+00
2.22000      0.00000e+00
2.22500      0.00000e+00
2.23000      0.00000e+00
2.23500      0.00000e+00
2.24000      0.00000e+00
2.24500      0.00000e+00
2.25000      0.00000e+00
2.25500      0.00000e+00
2.26000      0.00000e+00
2.26500      0.00000e+00
2.27000      0.00000e+00
2.27500      0.00000e+00
2.28000      0.00000e+00
2.28500      0.00000e+00
2.29000      0.00000e+00
2.29500      0.00000e+00
2.30000      0.00000e+00
2.30500      0.00000e+00
2.31000      0.00000e+00
2.31500      0.00000e+00
2.32000      0.00000e+00
2.32500      0.00000e+00
2.33000      0.00000e+00
2.33500      0.00000e+00
2.34000      0.00000e+00
2.34500      0.00000e+00
2.35000      0.00000e+00
2.35500      0.00000e+00
2.36000      0.00000e+00
2.36500      0.00000e+00
2.37000      0.00000e+00
2.37500      0.00000e+00
2.38000      0.00000e+00
2.38500      0.00000e+00
2.39000      0.00000e+00
2.39500      0.00000e+00
2.40000      0.00000e+00
2.40500      0.00000e+00
2.41000      0.00000e+00
2.41500      0.00000e+00
2.42000      0.00000e+00
2.42500      0.00000e+00
2.43000      0.00000e+00
2.43500      0.00000e+00
2.44000      0.00000e+00
2.44500      0.00000e+00
2.45000      0.00000e+00
2.45500      0.00000e+00
2.46000      0.00000e+00
2.46500      0.00000e+00
2.47000      0.00000e+00
2.47500      0.00000e+00
2.48000      0.00000e+00
2.48500      0.00000e+00
2.49000      0.00000e+00
2.49500      0.00000e+00
2.50000      0.00000e+00
